
Filename:
	C:\Data\Maxim\2019\align\theta4.raw

File Created:
	November 22, 2019 - 10:59 AM

Specimen Id:
	

Specimen Name:
	

Specimen Description:
	

Comment:
Scan Type: Theta Scan
Start Angle: -0.3 deg.
Stop Angle: 0.3 deg.
Num Points: 121
Step Size: 0.005 deg.
Scan Rate: 0.300000
Scan Mode: Step
Wavelength: 1.540562
\Kalpha1: 1.540562	\Kalpha2: 1.544390	\Kbeta: 1.392218

Optics:
		Detector:
			 Type: Fixed Slits
		Tube: 
			 Type: Fixed Slits


Datas:
 Pos [deg]       Rate [CPS]      ESD [-]

Range 1 ---> Iteration 1
  -0.300          4.00	     2.000
  -0.295          1.00	     1.000
  -0.290          6.00	     2.449
  -0.285          7.00	     2.646
  -0.279          3.00	     1.732
  -0.274          2.00	     1.414
  -0.270          7.00	     2.646
  -0.265          7.00	     2.646
  -0.260          3.00	     1.732
  -0.255          3.00	     1.732
  -0.249          2.00	     1.414
  -0.245          7.00	     2.646
  -0.240          5.00	     2.236
  -0.235         10.00	     3.162
  -0.229          5.00	     2.236
  -0.225          7.00	     2.646
  -0.220          8.00	     2.828
  -0.214          9.00	     3.000
  -0.210         14.00	     3.742
  -0.205         19.00	     4.359
  -0.200         12.00	     3.464
  -0.194         17.00	     4.123
  -0.189         17.00	     4.123
  -0.185         21.00	     4.583
  -0.180         31.00	     5.568
  -0.174         22.00	     4.690
  -0.170         38.00	     6.164
  -0.165         28.00	     5.292
  -0.160         34.00	     5.831
  -0.154         51.00	     7.141
  -0.150         56.00	     7.483
  -0.145         62.00	     7.874
  -0.140         80.00	     8.944
  -0.134        102.00	    10.100
  -0.130        101.00	    10.050
  -0.125        121.00	    11.000
  -0.120        140.00	    11.832
  -0.114        164.00	    12.806
  -0.110        184.00	    13.565
  -0.105        244.00	    15.620
  -0.100        307.00	    17.521
  -0.094        421.00	    20.518
  -0.090        598.00	    24.454
  -0.085        954.00	    30.887
  -0.080       1649.00	    40.608
  -0.074       2598.00	    50.971
  -0.070       3897.00	    62.426
  -0.065       5638.00	    75.087
  -0.060       7592.00	    87.132
  -0.054      10136.00	   100.678
  -0.050      12571.00	   112.120
  -0.045      15078.00	   122.793
  -0.039      18311.00	   135.318
  -0.034      20898.00	   144.561
  -0.030      23457.00	   153.157
  -0.025      25782.00	   160.568
  -0.020      28133.00	   167.729
  -0.014      29824.00	   172.696
  -0.010      30950.00	   175.926
  -0.005      31227.00	   176.712
   0.000      31169.00	   176.547
   0.006      30629.00	   175.011
   0.010      29756.00	   172.499
   0.015      28533.00	   168.917
   0.020      26878.00	   163.945
   0.026      25369.00	   159.276
   0.030      23413.00	   153.013
   0.035      21250.00	   145.774
   0.041      19041.00	   137.989
   0.045      16422.00	   128.148
   0.050      13992.00	   118.288
   0.055      11100.00	   105.357
   0.060       8421.00	    91.766
   0.065       6354.00	    79.712
   0.070       4304.00	    65.605
   0.075       2900.00	    53.852
   0.080       1978.00	    44.475
   0.086       1255.00	    35.426
   0.090        953.00	    30.871
   0.095        666.00	    25.807
   0.100        569.00	    23.854
   0.106        452.00	    21.260
   0.110        354.00	    18.815
   0.115        294.00	    17.146
   0.120        262.00	    16.186
   0.126        216.00	    14.697
   0.130        220.00	    14.832
   0.135        184.00	    13.565
   0.140        193.00	    13.892
   0.146        164.00	    12.806
   0.150        135.00	    11.619
   0.155        138.00	    11.747
   0.160         97.00	     9.849
   0.166        106.00	    10.296
   0.170         93.00	     9.644
   0.175        100.00	    10.000
   0.180         79.00	     8.888
   0.186         53.00	     7.280
   0.190         53.00	     7.280
   0.195         60.00	     7.746
   0.201         50.00	     7.071
   0.206         38.00	     6.164
   0.210         43.00	     6.557
   0.215         52.00	     7.211
   0.221         41.00	     6.403
   0.226         41.00	     6.403
   0.230         43.00	     6.557
   0.235         37.00	     6.083
   0.240         38.00	     6.164
   0.246         24.00	     4.899
   0.250         28.00	     5.292
   0.255         29.00	     5.385
   0.260         12.00	     3.464
   0.266         19.00	     4.359
   0.270         15.00	     3.873
   0.275         15.00	     3.873
   0.280         17.00	     4.123
   0.285         12.00	     3.464
   0.290         13.00	     3.606
   0.295         12.00	     3.464
   0.300         18.00	     4.243
